File: V44_Reflectrometry/data/omega_2theta_background.UXD
; C:\DIFFDAT1\Praktikum\Fisher_Margaryan\omega_2theta_background.raw(Diffrac Plus V1.01 file) converted by XCH V1.0
_FILEVERSION=2
_SITE='Deutschland'
_USER='Administrator'
_GONIOMETER_CODE=4885
; D8 Theta/Theta; Special
_SAMPLE_CHANGER_CODE=0
_ATTACHMENTS_CODE=0
_GONIOMETER_RADIUS=350
_FIXED_DIVSLIT=0.600000
_FIXED_SAMPLESLIT=0.000000
_FIXED_DETSLIT=11.66
_MONOCHROMATOR=0
; None
_THIN_FILM='N'
_BETA_FILTER='Y'
_FIXED_ANTISLIT=8.340000
_ANALYZER_CODE=0
; None
_DATEMEASURED='15-Dec-2025 12:25:11'
_WL_UNIT='A'
_WL1=1.540600
_WL2=1.544390
_WL3=1.392220
_WLRATIO=0.500000
_ANODE='Cu'
; (Data for Range number 1)
_DRIVE='THETA'
_STEPTIME=5.000660
_STEPSIZE=0.005000
_STEPMODE='C'
_START=0.000000
_THETA=0.000000
_2THETA=0.100000
_KHI=0.000000
_PHI=92.46
_X=-1.000000
_Y=-2.500000
_Z=0.256000
_DIVERGENCE=0.000000
_ANTISCATTER=0.000000
_DETECTOR=5
_DETECTORSLIT='unkn'
_AUX1=0.000000
_AUX2=0.000000
_AUX3=0.000000
_TIMESTARTED=2.000000
_TEMP_RATE=-1.000000
_TEMP_DELAY=-1.000000
_KV=30
_MA=30
_RANGE_WL=1.540600
_3DPLANE=0
_GONIOMETER=0.097500
_PSDCHANNEL0=0
_2THETACOUNTS
   0.0000     83665
   0.0100     64080
   0.0200     44084
   0.0300     38842
   0.0400     35851
   0.0500     32033
   0.0600     31540
   0.0700     34104
   0.0800     38820
   0.0900     39679
   0.1000     37860
   0.1100     30507
   0.1200     30745
   0.1300     24117
   0.1400     17318
   0.1500     14870
   0.1600     12421
   0.1700     10160
   0.1800      8712
   0.1900      7057
   0.2000      5428
   0.2100      3698
   0.2200      2653
   0.2300      1889
   0.2400      1315
   0.2500       901
   0.2600       594
   0.2700       537
   0.2800       438
   0.2900       431
   0.3000       411
   0.3100       341
   0.3200       347
   0.3300       312
   0.3400       353
   0.3500       294
   0.3600       294
   0.3700       311
   0.3800       277
   0.3900       296
   0.4000       313
   0.4100       281
   0.4200       294
   0.4300       263
   0.4400       348
   0.4500       331
   0.4600       311
   0.4700       342
   0.4800       304
   0.4900       379
   0.5000       416
   0.5100       391
   0.5200       427
   0.5300       441
   0.5400       449
   0.5500       544
   0.5600       570
   0.5700       625
   0.5800       684
   0.5900       987
   0.6000      1369
   0.6100      2119
   0.6200      2858
   0.6300      3660
   0.6400      4706
   0.6500      5215
   0.6600      5633
   0.6700      5432
   0.6800      4866
   0.6900      4035
   0.7000      3353
   0.7100      2639
   0.7200      1916
   0.7300      1124
   0.7400       434
   0.7500        58
   0.7600        15
   0.7700        23
   0.7800        10
   0.7900        17
   0.8000        17
   0.8100        22
   0.8200        13
   0.8300        12
   0.8400        12
   0.8500        12
   0.8600        10
   0.8700        12
   0.8800        11
   0.8900         8
   0.9000        11
   0.9100        11
   0.9200         9
   0.9300         8
   0.9400         9
   0.9500         5
   0.9600        13
   0.9700        11
   0.9800        11
   0.9900         9
   1.0000        13
   1.0100        11
   1.0200         6
   1.0300         7
   1.0400         8
   1.0500         8
   1.0600         9
   1.0700         8
   1.0800         8
   1.0900         7
   1.1000         7
   1.1100         5
   1.1200         9
   1.1300         6
   1.1400         9
   1.1500         7
   1.1600         6
   1.1700        14
   1.1800         3
   1.1900         6
   1.2000        10
   1.2100         7
   1.2200         9
   1.2300         2
   1.2400         5
   1.2500        10
   1.2600         4
   1.2700         4
   1.2800         2
   1.2900         3
   1.3000        10
   1.3100         5
   1.3200         8
   1.3300         4
   1.3400         5
   1.3500         3
   1.3600         6
   1.3700         2
   1.3800         2
   1.3900         7
   1.4000         4
   1.4100         3
   1.4200         4
   1.4300         2
   1.4400         0
   1.4500         2
   1.4600         3
   1.4700         3
   1.4800         1
   1.4900         0
   1.5000         1